!   radius[R*]    pressure[bar]   temperature[K]
     1.00000       5.0000E-05        2500.00
     1.00231       4.8525E-05        2496.55
     1.00462       4.7096E-05        2493.09
     1.00694       4.5711E-05        2489.65
     1.00926       4.4368E-05        2486.21
     1.01159       4.3067E-05        2482.77
     1.01393       4.1806E-05        2479.34
     1.01627       4.0584E-05        2475.92
     1.01861       3.9399E-05        2472.49
     1.02096       3.8251E-05        2469.08
     1.02332       3.7137E-05        2465.66
     1.02568       3.6058E-05        2462.26
     1.02804       3.5011E-05        2458.85
     1.03042       3.3997E-05        2455.46
     1.03279       3.3013E-05        2452.06
     1.03518       3.2059E-05        2448.67
     1.03757       3.1134E-05        2445.29
     1.03996       3.0237E-05        2441.91
     1.04236       2.9367E-05        2438.54
     1.04477       2.8524E-05        2435.17
     1.04718       2.7706E-05        2431.80
     1.04959       2.6912E-05        2428.44
     1.05202       2.6143E-05        2425.08
     1.05444       2.5396E-05        2421.73
     1.05688       2.4672E-05        2418.39
     1.05931       2.3970E-05        2415.04
     1.06176       2.3288E-05        2411.71
     1.06421       2.2627E-05        2408.37
     1.06666       2.1986E-05        2405.04
     1.06913       2.1364E-05        2401.72
     1.07159       2.0760E-05        2398.40
     1.07407       2.0174E-05        2395.09
     1.07654       1.9605E-05        2391.78
     1.07903       1.9054E-05        2388.47
     1.08152       1.8519E-05        2385.17
     1.08401       1.7999E-05        2381.88
     1.08652       1.7495E-05        2378.58
     1.08902       1.7006E-05        2375.30
     1.09154       1.6531E-05        2372.01
     1.09405       1.6070E-05        2368.74
     1.09658       1.5622E-05        2365.46
     1.09911       1.5188E-05        2362.19
     1.10165       1.4766E-05        2358.93
     1.10419       1.4357E-05        2355.67
     1.10674       1.3959E-05        2352.41
     1.10929       1.3573E-05        2349.16
     1.11185       1.3199E-05        2345.92
     1.11442       1.2835E-05        2342.67
     1.11699       1.2482E-05        2339.44
     1.11956       1.2139E-05        2336.20
     1.12215       1.1806E-05        2332.97
     1.12474       1.1482E-05        2329.75
     1.12733       1.1168E-05        2326.53
     1.12993       1.0863E-05        2323.32
     1.13254       1.0567E-05        2320.10
     1.13515       1.0279E-05        2316.90
     1.13777       9.9994E-06        2313.70
     1.14040       9.7278E-06        2310.50
     1.14303       9.4641E-06        2307.31
     1.14567       9.2078E-06        2304.12
     1.14831       8.9589E-06        2300.93
     1.15096       8.7170E-06        2297.75
     1.15362       8.4820E-06        2294.58
     1.15628       8.2537E-06        2291.41
     1.15895       8.0319E-06        2288.24
     1.16162       7.8164E-06        2285.08
     1.16430       7.6069E-06        2281.92
     1.16699       7.4034E-06        2278.77
     1.16968       7.2055E-06        2275.62
     1.17238       7.0133E-06        2272.47
     1.17509       6.8265E-06        2269.33
     1.17780       6.6449E-06        2266.20
     1.18052       6.4684E-06        2263.06
     1.18324       6.2969E-06        2259.94
     1.18597       6.1301E-06        2256.81
     1.18871       5.9680E-06        2253.69
     1.19145       5.8104E-06        2250.58
     1.19420       5.6572E-06        2247.47
     1.19696       5.5083E-06        2244.36
     1.19972       5.3635E-06        2241.26
     1.20249       5.2227E-06        2238.16
     1.20526       5.0858E-06        2235.07
     1.20804       4.9527E-06        2231.98
     1.21083       4.8233E-06        2228.90
     1.21362       4.6974E-06        2225.82
     1.21642       4.5750E-06        2222.74
     1.21923       4.4560E-06        2219.67
     1.22204       4.3403E-06        2216.60
     1.22486       4.2277E-06        2213.54
     1.22769       4.1182E-06        2210.48
     1.23052       4.0117E-06        2207.42
     1.23336       3.9081E-06        2204.37
     1.23621       3.8073E-06        2201.33
     1.23906       3.7093E-06        2198.29
     1.24192       3.6139E-06        2195.25
     1.24479       3.5211E-06        2192.21
     1.24766       3.4308E-06        2189.18
     1.25054       3.3430E-06        2186.16
     1.25342       3.2576E-06        2183.14
     1.25632       3.1744E-06        2180.12
     1.25922       3.0935E-06        2177.11
     1.26212       3.0148E-06        2174.10
     1.26503       2.9382E-06        2171.09
     1.26795       2.8637E-06        2168.09
     1.27088       2.7911E-06        2165.10
     1.27381       2.7205E-06        2162.11
     1.27675       2.6518E-06        2159.12
     1.27970       2.5849E-06        2156.13
     1.28265       2.5198E-06        2153.15
     1.28561       2.4565E-06        2150.18
     1.28858       2.3948E-06        2147.21
     1.29155       2.3347E-06        2144.24
     1.29453       2.2763E-06        2141.28
     1.29752       2.2194E-06        2138.32
     1.30051       2.1640E-06        2135.36
     1.30351       2.1101E-06        2132.41
     1.30652       2.0575E-06        2129.46
     1.30954       2.0064E-06        2126.52
     1.31256       1.9566E-06        2123.58
     1.31559       1.9081E-06        2120.65
     1.31862       1.8609E-06        2117.72
     1.32166       1.8150E-06        2114.79
     1.32471       1.7702E-06        2111.87
     1.32777       1.7266E-06        2108.95
     1.33083       1.6841E-06        2106.03
     1.33391       1.6428E-06        2103.12
     1.33698       1.6025E-06        2100.22
     1.34007       1.5632E-06        2097.32
     1.34316       1.5250E-06        2094.42
     1.34626       1.4878E-06        2091.52
     1.34937       1.4515E-06        2088.63
     1.35248       1.4162E-06        2085.75
     1.35560       1.3818E-06        2082.86
     1.35873       1.3482E-06        2079.98
     1.36187       1.3156E-06        2077.11
     1.36501       1.2837E-06        2074.24
     1.36816       1.2527E-06        2071.37
     1.37131       1.2225E-06        2068.51
     1.37448       1.1930E-06        2065.65
     1.37765       1.1643E-06        2062.80
     1.38083       1.1364E-06        2059.95
     1.38402       1.1091E-06        2057.10
     1.38721       1.0826E-06        2054.26
     1.39041       1.0567E-06        2051.42
     1.39362       1.0314E-06        2048.58
     1.39684       1.0068E-06        2045.75
     1.40006       9.8288E-07        2042.92
     1.40329       9.5951E-07        2040.10
     1.40653       9.3674E-07        2037.28
     1.40977       9.1454E-07        2034.47
     1.41303       8.9289E-07        2031.65
     1.41629       8.7179E-07        2028.85
     1.41955       8.5122E-07        2026.04
     1.42283       8.3117E-07        2023.24
     1.42611       8.1161E-07        2020.45
     1.42940       7.9254E-07        2017.66
     1.43270       7.7395E-07        2014.87
     1.43601       7.5583E-07        2012.08
     1.43932       7.3815E-07        2009.30
     1.44264       7.2091E-07        2006.52
     1.44597       7.0410E-07        2003.75
     1.44931       6.8771E-07        2000.98
     1.45265       6.7172E-07        1998.22
     1.45601       6.5612E-07        1995.46
     1.45937       6.4091E-07        1992.70
     1.46273       6.2608E-07        1989.94
     1.46611       6.1161E-07        1987.19
     1.46949       5.9749E-07        1984.45
     1.47288       5.8373E-07        1981.71
     1.47628       5.7029E-07        1978.97
     1.47969       5.5719E-07        1976.23
     1.48310       5.4441E-07        1973.50
     1.48652       5.3194E-07        1970.77
     1.48996       5.1977E-07        1968.05
     1.49339       5.0790E-07        1965.33
     1.49684       4.9631E-07        1962.61
     1.50029       4.8501E-07        1959.90
     1.50376       4.7398E-07        1957.19
     1.50723       4.6322E-07        1954.49
     1.51070       4.5272E-07        1951.79
     1.51419       4.4247E-07        1949.09
     1.51768       4.3247E-07        1946.40
     1.52119       4.2271E-07        1943.71
     1.52470       4.1318E-07        1941.02
     1.52821       4.0388E-07        1938.34
     1.53174       3.9481E-07        1935.66
     1.53528       3.8595E-07        1932.98
     1.53882       3.7730E-07        1930.31
     1.54237       3.6886E-07        1927.65
     1.54593       3.6062E-07        1924.98
     1.54950       3.5258E-07        1922.32
     1.55307       3.4472E-07        1919.66
     1.55665       3.3706E-07        1917.01
     1.56025       3.2957E-07        1914.36
     1.56385       3.2227E-07        1911.72
     1.56746       3.1513E-07        1909.07
     1.57107       3.0816E-07        1906.44
     1.57470       3.0136E-07        1903.80
     1.57833       2.9472E-07        1901.17
     1.58197       2.8823E-07        1898.54
     1.58562       2.8190E-07        1895.92
     1.58928       2.7571E-07        1893.30
     1.59295       2.6967E-07        1890.68
     1.59663       2.6377E-07        1888.07
     1.60031       2.5801E-07        1885.46
     1.60400       2.5238E-07        1882.86
     1.60770       2.4688E-07        1880.25
     1.61141       2.4151E-07        1877.65
     1.61513       2.3627E-07        1875.06
     1.61886       2.3114E-07        1872.47
     1.62260       2.2614E-07        1869.88
     1.62634       2.2125E-07        1867.30
     1.63009       2.1647E-07        1864.72
     1.63385       2.1180E-07        1862.14
     1.63762       2.0724E-07        1859.57
     1.64140       2.0279E-07        1857.00
     1.64519       1.9844E-07        1854.43
     1.64899       1.9419E-07        1851.87
     1.65279       1.9003E-07        1849.31
     1.65661       1.8597E-07        1846.75
     1.66043       1.8200E-07        1844.20
     1.66426       1.7812E-07        1841.65
     1.66810       1.7434E-07        1839.11
     1.67195       1.7063E-07        1836.56
     1.67581       1.6701E-07        1834.03
     1.67967       1.6348E-07        1831.49
     1.68355       1.6002E-07        1828.96
     1.68744       1.5664E-07        1826.43
     1.69133       1.5334E-07        1823.91
     1.69523       1.5011E-07        1821.39
     1.69914       1.4695E-07        1818.87
     1.70307       1.4387E-07        1816.36
     1.70699       1.4085E-07        1813.85
     1.71093       1.3791E-07        1811.34
     1.71488       1.3502E-07        1808.84
     1.71884       1.3221E-07        1806.34
     1.72281       1.2945E-07        1803.84
     1.72678       1.2676E-07        1801.35
     1.73077       1.2413E-07        1798.86
     1.73476       1.2155E-07        1796.37
     1.73876       1.1903E-07        1793.89
     1.74277       1.1657E-07        1791.41
     1.74680       1.1416E-07        1788.94
     1.75083       1.1181E-07        1786.46
     1.75487       1.0951E-07        1783.99
     1.75892       1.0726E-07        1781.53
     1.76298       1.0506E-07        1779.07
     1.76704       1.0290E-07        1776.61
     1.77112       1.0080E-07        1774.15
     1.77521       9.8735E-08        1771.70
     1.77930       9.6720E-08        1769.25
     1.78341       9.4750E-08        1766.81
     1.78753       9.2822E-08        1764.37
     1.79165       9.0936E-08        1761.93
     1.79578       8.9091E-08        1759.49
     1.79993       8.7286E-08        1757.06
     1.80408       8.5521E-08        1754.63
     1.80824       8.3794E-08        1752.21
     1.81242       8.2104E-08        1749.79
     1.81660       8.0451E-08        1747.37
     1.82079       7.8833E-08        1744.95
     1.82499       7.7250E-08        1742.54
     1.82920       7.5701E-08        1740.13
     1.83343       7.4186E-08        1737.73
     1.83766       7.2703E-08        1735.33
     1.84190       7.1252E-08        1732.93
     1.84615       6.9832E-08        1730.53
     1.85041       6.8443E-08        1728.14
     1.85468       6.7083E-08        1725.75
     1.85896       6.5752E-08        1723.37
     1.86325       6.4449E-08        1720.99
     1.86755       6.3174E-08        1718.61
     1.87186       6.1926E-08        1716.23
     1.87617       6.0705E-08        1713.86
     1.88050       5.9510E-08        1711.49
     1.88484       5.8339E-08        1709.13
     1.88919       5.7194E-08        1706.77
     1.89355       5.6072E-08        1704.41
     1.89792       5.4975E-08        1702.05
     1.90230       5.3900E-08        1699.70
     1.90669       5.2848E-08        1697.35
     1.91109       5.1818E-08        1695.01
     1.91550       5.0809E-08        1692.66
     1.91992       4.9822E-08        1690.32
     1.92435       4.8855E-08        1687.99
     1.92879       4.7909E-08        1685.66
     1.93324       4.6982E-08        1683.33
     1.93770       4.6074E-08        1681.00
     1.94217       4.5186E-08        1678.68
     1.94666       4.4315E-08        1676.36
     1.95115       4.3463E-08        1674.04
     1.95565       4.2628E-08        1671.73
     1.96016       4.1811E-08        1669.42
     1.96469       4.1011E-08        1667.11
     1.96922       4.0226E-08        1664.81
     1.97376       3.9459E-08        1662.50
     1.97832       3.8706E-08        1660.21
     1.98288       3.7970E-08        1657.91
     1.98746       3.7248E-08        1655.62
     1.99205       3.6541E-08        1653.33
     1.99664       3.5849E-08        1651.05
     2.00125       3.5171E-08        1648.77
     2.00587       3.4506E-08        1646.49
     2.01050       3.3855E-08        1644.21
     2.01514       3.3217E-08        1641.94
     2.01979       3.2593E-08        1639.67
     2.02445       3.1981E-08        1637.41
     2.02912       3.1381E-08        1635.14
     2.03380       3.0793E-08        1632.88
     2.03849       3.0218E-08        1630.63
     2.04320       2.9653E-08        1628.37
     2.04791       2.9101E-08        1626.12
     2.05264       2.8559E-08        1623.88
     2.05737       2.8028E-08        1621.63
     2.06212       2.7508E-08        1619.39
     2.06688       2.6998E-08        1617.15
     2.07165       2.6499E-08        1614.92
     2.07643       2.6009E-08        1612.69
     2.08122       2.5529E-08        1610.46
     2.08602       2.5059E-08        1608.23
     2.09084       2.4598E-08        1606.01
     2.09566       2.4146E-08        1603.79
     2.10050       2.3703E-08        1601.57
     2.10535       2.3269E-08        1599.36
     2.11020       2.2844E-08        1597.15
     2.11507       2.2427E-08        1594.94
     2.11995       2.2018E-08        1592.74
     2.12485       2.1617E-08        1590.54
     2.12975       2.1224E-08        1588.34
     2.13466       2.0839E-08        1586.14
     2.13959       2.0461E-08        1583.95
     2.14453       2.0091E-08        1581.76
     2.14947       1.9728E-08        1579.58
     2.15443       1.9372E-08        1577.39
     2.15941       1.9023E-08        1575.21
     2.16439       1.8681E-08        1573.04
     2.16938       1.8345E-08        1570.86
     2.17439       1.8016E-08        1568.69
     2.17941       1.7693E-08        1566.52
     2.18444       1.7377E-08        1564.36
     2.18948       1.7067E-08        1562.20
     2.19453       1.6762E-08        1560.04
     2.19959       1.6464E-08        1557.88
     2.20467       1.6171E-08        1555.73
     2.20976       1.5884E-08        1553.58
     2.21486       1.5603E-08        1551.43
     2.21997       1.5327E-08        1549.29
     2.22509       1.5056E-08        1547.15
     2.23022       1.4790E-08        1545.01
     2.23537       1.4529E-08        1542.87
     2.24053       1.4274E-08        1540.74
     2.24570       1.4023E-08        1538.61
     2.25088       1.3777E-08        1536.49
     2.25607       1.3536E-08        1534.36
     2.26128       1.3299E-08        1532.24
     2.26650       1.3067E-08        1530.12
     2.27173       1.2839E-08        1528.01
     2.27697       1.2615E-08        1525.90
     2.28222       1.2396E-08        1523.79
     2.28749       1.2181E-08        1521.68
     2.29277       1.1970E-08        1519.58
     2.29806       1.1763E-08        1517.48
     2.30336       1.1559E-08        1515.38
     2.30868       1.1360E-08        1513.29
     2.31401       1.1164E-08        1511.20
     2.31935       1.0972E-08        1509.11
     2.32470       1.0784E-08        1507.02
     2.33006       1.0599E-08        1504.94
     2.33544       1.0417E-08        1502.86
     2.34083       1.0239E-08        1500.78
     2.34623       1.0064E-08        1498.71
     2.35164       9.8924E-09        1496.64
     2.35707       9.7239E-09        1494.57
     2.36251       9.5586E-09        1492.51
     2.36796       9.3963E-09        1490.44
     2.37342       9.2370E-09        1488.38
     2.37890       9.0807E-09        1486.33
     2.38439       8.9272E-09        1484.27
     2.38989       8.7765E-09        1482.22
     2.39541       8.6287E-09        1480.17
     2.40093       8.4835E-09        1478.13
     2.40648       8.3409E-09        1476.08
     2.41203       8.2010E-09        1474.04
     2.41759       8.0636E-09        1472.01
     2.42317       7.9287E-09        1469.97
     2.42876       7.7963E-09        1467.94
     2.43437       7.6663E-09        1465.91
     2.43999       7.5386E-09        1463.89
     2.44562       7.4133E-09        1461.86
     2.45126       7.2902E-09        1459.84
     2.45692       7.1693E-09        1457.83
     2.46259       7.0507E-09        1455.81
     2.46827       6.9341E-09        1453.80
     2.47396       6.8197E-09        1451.79
     2.47967       6.7073E-09        1449.78
     2.48539       6.5969E-09        1447.78
     2.49113       6.4885E-09        1445.78
     2.49688       6.3821E-09        1443.78
     2.50264       6.2775E-09        1441.79
     2.50842       6.1748E-09        1439.79
     2.51420       6.0740E-09        1437.80
     2.52000       5.9749E-09        1435.82
     2.52582       5.8776E-09        1433.83
     2.53165       5.7820E-09        1431.85
     2.53749       5.6881E-09        1429.87
     2.54335       5.5959E-09        1427.90
     2.54921       5.5053E-09        1425.92
     2.55510       5.4163E-09        1423.95
     2.56099       5.3289E-09        1421.98
     2.56690       5.2430E-09        1420.02
     2.57283       5.1586E-09        1418.06
     2.57876       5.0758E-09        1416.10
     2.58471       4.9943E-09        1414.14
     2.59068       4.9143E-09        1412.19
     2.59666       4.8357E-09        1410.23
     2.60265       4.7584E-09        1408.29
     2.60865       4.6825E-09        1406.34
     2.61467       4.6080E-09        1404.40
     2.62071       4.5347E-09        1402.46
     2.62675       4.4627E-09        1400.52
     2.63282       4.3919E-09        1398.58
     2.63889       4.3224E-09        1396.65
     2.64498       4.2541E-09        1394.72
     2.65108       4.1869E-09        1392.79
     2.65720       4.1209E-09        1390.87
     2.66333       4.0561E-09        1388.94
     2.66948       3.9923E-09        1387.02
     2.67564       3.9297E-09        1385.11
     2.68181       3.8681E-09        1383.19
     2.68800       3.8076E-09        1381.28
     2.69420       3.7481E-09        1379.37
     2.70042       3.6896E-09        1377.47
     2.70665       3.6322E-09        1375.56
     2.71290       3.5757E-09        1373.66
     2.71916       3.5202E-09        1371.76
     2.72543       3.4656E-09        1369.87
     2.73172       3.4119E-09        1367.97
     2.73803       3.3592E-09        1366.08
     2.74434       3.3073E-09        1364.20
     2.75068       3.2563E-09        1362.31
     2.75702       3.2062E-09        1360.43
     2.76339       3.1569E-09        1358.55
     2.76976       3.1085E-09        1356.67
